'dm003005.bt5' 'Feb 25 2007 01:07' 'I'        400.    1  'TIME'   10  'RAW'
  Filename         Date            Scan       Mon    Prf  Base   #pts  Type
dm003 em3, 90% aq, um (hh) 0.508mm 1/2" Cd apertur
   0    0    0    0   0   0   0   0.0000     0.00000 0.00000   0.00000    2
 Collimation      Mosaic    Wavelength   T-Start   Incr.   H-field #Det    
  1       0.00000    0.00000    0.00000
  2      10.00000    1.00000   19.00000
  3       0.00000    0.00000    0.00000
  4       0.00000    0.00000    0.00000
  5      20.00000    0.00000   20.00000
  6       0.00000    0.00000    0.00000
 Mot:    Start       Step      End
     A2       MIN      MONITOR      COUNTS      EXTRA  
     10.000    6.67    11631876         109     5815369
 11631876,109,54,5814888,50,172,205,0,0,0,0,0,0,0,0,0
     11.000    6.67    11604608          76     5808623
 11604608,76,34,5808300,39,118,132,0,0,0,0,0,0,0,0,0
     12.000    6.67    11615564          68     5804927
 11615564,68,30,5804646,35,106,110,0,0,0,0,0,0,0,0,0
     13.000    6.67    11628153          41     5815498
 11628153,41,21,5815283,27,68,99,0,0,0,0,0,0,0,0,0
     14.000    6.67    11621522          43     5811280
 11621522,43,16,5811099,23,71,71,0,0,0,0,0,0,0,0,0
     15.000    6.67    11623067          34     5812124
 11623067,34,14,5811995,11,50,54,0,0,0,0,0,0,0,0,0
     16.000    6.67    11617190          25     5811052
 11617190,25,13,5810928,17,49,45,0,0,0,0,0,0,0,0,0
     17.000    6.67    11612671          25     5803593
 11612671,25,6,5803489,12,46,40,0,0,0,0,0,0,0,0,0
     18.000    6.67    11608777          19     5804135
 11608777,19,14,5804021,11,41,48,0,0,0,0,0,0,0,0,0
     19.000    6.67    11614266          17     5806822
 11614266,17,11,5806742,7,32,30,0,0,0,0,0,0,0,0,0
