'dm008005.bt5' 'Mar  8 2007 12:14' 'I'        300.    1  'TIME'   10  'RAW'
  Filename         Date            Scan       Mon    Prf  Base   #pts  Type
dm008 em8 v2 95% aq um (hh) 0.508mm 1/2" Cd ap    
   0    0    0    0   0   0   0   0.0000     0.00000 0.00000   0.00000    2
 Collimation      Mosaic    Wavelength   T-Start   Incr.   H-field #Det    
  1       0.00000    0.00000    0.00000
  2      10.00000    1.00000   19.00000
  3       0.00000    0.00000    0.00000
  4       0.00000    0.00000    0.00000
  5      30.00000    0.00000   30.00000
  6       0.00000    0.00000    0.00000
 Mot:    Start       Step      End
     A2       MIN      MONITOR      COUNTS      EXTRA  
     10.000    5.00     8704749          17     4190947
 8704749,17,10,4190860,15,31,31,0,0,0,0,0,0,0,0,0
     11.000    5.00     8695262           6     4188727
 8695262,6,10,4188660,13,17,27,0,0,0,0,0,0,0,0,0
     12.000    5.00     8696250           9     4188201
 8696250,9,3,4188140,8,25,25,0,0,0,0,0,0,0,0,0
     13.000    5.00     8710557           5     4191271
 8710557,5,1,4191234,6,12,18,0,0,0,0,0,0,0,0,0
     14.000    5.00     8699630           9     4189985
 8699630,9,2,4189951,6,10,16,0,0,0,0,0,0,0,0,0
     15.000    5.00     8703750           4     4188489
 8703750,4,7,4188447,6,10,19,0,0,0,0,0,0,0,0,0
     16.000    5.00     8698173          10     4189948
 8698173,10,4,4189915,7,13,9,0,0,0,0,0,0,0,0,0
     17.000    5.00     8694120           8     4180488
 8694120,8,2,4180466,2,10,8,0,0,0,0,0,0,0,0,0
     18.000    5.00     8703756           3     4190007
 8703756,3,4,4189981,2,11,9,0,0,0,0,0,0,0,0,0
     19.000    5.00     8700125           4     4186002
 8700125,4,4,4185976,4,11,7,0,0,0,0,0,0,0,0,0
