'dm004005.bt5' 'Feb 26 2007 14:34' 'I'        800.    1  'TIME'   10  'RAW'
  Filename         Date            Scan       Mon    Prf  Base   #pts  Type
dm004 emulsion 4, 90% aq, cm (dd)                 
   0    0    0    0   0   0   0   0.0000     0.00000 0.00000   0.00000    2
 Collimation      Mosaic    Wavelength   T-Start   Incr.   H-field #Det    
  1       0.00000    0.00000    0.00000
  2      10.00000    1.00000   19.00000
  3       0.00000    0.00000    0.00000
  4       0.00000    0.00000    0.00000
  5      30.00000    0.00000   30.00000
  6       0.00000    0.00000    0.00000
 Mot:    Start       Step      End
     A2       MIN      MONITOR      COUNTS      EXTRA  
     10.000   13.33    23311268          13    16671771
 23311268,13,2,16671744,3,8,14,0,0,0,0,0,0,0,0,0
     11.000   13.33    23291990           6    16659127
 23291990,6,9,16659087,8,11,12,0,0,0,0,0,0,0,0,0
     12.000   13.33    23307302           6    16673021
 23307302,6,6,16672986,4,17,8,0,0,0,0,0,0,0,0,0
     13.000   13.33    23284957           6    16649884
 23284957,6,11,16649848,5,12,8,0,0,0,0,0,0,0,0,0
     14.000   13.33    23301217           4    16666205
 23301217,4,9,16666161,7,11,17,0,0,0,0,0,0,0,0,0
     15.000   13.33    23303522           2    16663062
 23303522,2,5,16663035,8,8,6,0,0,0,0,0,0,0,0,0
     16.000   13.33    23291964           8    16660901
 23291964,8,2,16660872,9,9,9,0,0,0,0,0,0,0,0,0
     17.000   13.33    23283784           6    16653424
 23283784,6,4,16653403,3,6,8,0,0,0,0,0,0,0,0,0
     18.000   13.33    23222711           9    16608450
 23222711,9,5,16608428,5,6,6,0,0,0,0,0,0,0,0,0
     19.000   13.33    23198107           5    16599694
 23198107,5,7,16599663,8,12,4,0,0,0,0,0,0,0,0,0
