'dm007012.bt5' 'Mar  6 2007 12:12' 'I'        400.    1  'TIME'   10  'RAW'
  Filename         Date            Scan       Mon    Prf  Base   #pts  Type
dm007 95% emulsion CM (dd) 1mm 1/2" cd ap         
   0    0    0    0   0   0   0   0.0000     0.00000 0.00000   0.00000    2
 Collimation      Mosaic    Wavelength   T-Start   Incr.   H-field #Det    
  1       0.00000    0.00000    0.00000
  2      10.00000    1.00000   19.00000
  3       0.00000    0.00000    0.00000
  4       0.00000    0.00000    0.00000
  5      20.00000    0.00000   20.00000
  6       0.00000    0.00000    0.00000
 Mot:    Start       Step      End
     A2       MIN      MONITOR      COUNTS      EXTRA  
     10.000    6.67    11564224           3     5885422
 11564224,3,2,5885402,6,5,7,0,0,0,0,0,0,0,0,0
     11.000    6.67    11570006           5     5881013
 11570006,5,2,5880997,5,3,6,0,0,0,0,0,0,0,0,0
     12.000    6.67    11565653           3     5882802
 11565653,3,4,5882789,1,4,4,0,0,0,0,0,0,0,0,0
     13.000    6.67    11557093           0     5881015
 11557093,0,2,5881003,1,3,6,0,0,0,0,0,0,0,0,0
     14.000    6.67    11570798           1     5891207
 11570798,1,3,5891196,1,3,4,0,0,0,0,0,0,0,0,0
     15.000    6.67    11568716           2     5883049
 11568716,2,2,5883041,0,2,4,0,0,0,0,0,0,0,0,0
     16.000    6.67    11582696           4     5892737
 11582696,4,1,5892731,3,1,1,0,0,0,0,0,0,0,0,0
     17.000    6.67    11581097           4     5892786
 11581097,4,1,5892782,1,2,0,0,0,0,0,0,0,0,0,0
     18.000    6.67    11587244           2     5890870
 11587244,2,4,5890861,1,1,3,0,0,0,0,0,0,0,0,0
     19.000    6.67    11580536           4     5892171
 11580536,4,3,5892161,1,3,3,0,0,0,0,0,0,0,0,0
