'dm002012.bt5' 'Feb 24 2007 14:43' 'I'        400.    1  'TIME'   10  'RAW'
  Filename         Date            Scan       Mon    Prf  Base   #pts  Type
dm002 em2, 80% aq, um (hh) 0.508mm 1/2" Cd apertur
   0    0    0    0   0   0   0   0.0000     0.00000 0.00000   0.00000    2
 Collimation      Mosaic    Wavelength   T-Start   Incr.   H-field #Det    
  1       0.00000    0.00000    0.00000
  2      10.00000    1.00000   19.00000
  3       0.00000    0.00000    0.00000
  4       0.00000    0.00000    0.00000
  5      10.00000    0.00000   10.00000
  6       0.00000    0.00000    0.00000
 Mot:    Start       Step      End
     A2       MIN      MONITOR      COUNTS      EXTRA  
     10.000    6.67    11668265          42     5563851
 11668265,42,41,5563580,40,83,107,0,0,0,0,0,0,0,0,0
     11.000    6.67    11677642          34     5563511
 11677642,34,22,5563333,21,63,72,0,0,0,0,0,0,0,0,0
     12.000    6.67    11669000          28     5565035
 11669000,28,18,5564891,16,53,57,0,0,0,0,0,0,0,0,0
     13.000    6.67    11674281          24     5566508
 11674281,24,5,5566388,17,41,57,0,0,0,0,0,0,0,0,0
     14.000    6.67    11674603          19     5560485
 11674603,19,11,5560390,3,39,42,0,0,0,0,0,0,0,0,0
     15.000    6.67    11673615          20     5563971
 11673615,20,10,5563900,8,22,31,0,0,0,0,0,0,0,0,0
     16.000    6.67    11670448          10     5568455
 11670448,10,10,5568389,7,25,24,0,0,0,0,0,0,0,0,0
     17.000    6.67    11670004          12     5563120
 11670004,12,5,5563061,4,23,27,0,0,0,0,0,0,0,0,0
     18.000    6.67    11671537           4     5568437
 11671537,4,7,5568402,5,9,14,0,0,0,0,0,0,0,0,0
     19.000    6.67    11672616          12     5561836
 11672616,12,8,5561803,2,10,13,0,0,0,0,0,0,0,0,0
