'dm002014.bt5' 'Feb 24 2007 19:31' 'I'       1600.    1  'TIME'   10  'RAW'
  Filename         Date            Scan       Mon    Prf  Base   #pts  Type
dm002 em2, 80% aq, um (hh) 0.508mm 1/2" Cd apertur
   0    0    0    0   0   0   0   0.0000     0.00000 0.00000   0.00000    2
 Collimation      Mosaic    Wavelength   T-Start   Incr.   H-field #Det    
  1       0.00000    0.00000    0.00000
  2      50.00000    5.00000   95.00000
  3       0.00000    0.00000    0.00000
  4       0.00000    0.00000    0.00000
  5      10.00000    0.00000   10.00000
  6       0.00000    0.00000    0.00000
 Mot:    Start       Step      End
     A2       MIN      MONITOR      COUNTS      EXTRA  
     50.000   26.67    46570036           9    22195563
 46570036,9,7,22195515,12,10,19,0,0,0,0,0,0,0,0,0
     55.000   26.67    46558314           7    22183148
 46558314,7,9,22183109,7,11,12,0,0,0,0,0,0,0,0,0
     60.000   26.67    46529963          10    22188988
 46529963,10,7,22188948,7,20,6,0,0,0,0,0,0,0,0,0
     65.000   26.67    46543202           9    22180817
 46543202,9,6,22180777,11,16,7,0,0,0,0,0,0,0,0,0
     70.000   26.67    46518304           7    22182410
 46518304,7,12,22182366,8,15,9,0,0,0,0,0,0,0,0,0
     75.000   26.67    46510372          13    22171090
 46510372,13,6,22171052,5,13,14,0,0,0,0,0,0,0,0,0
     80.000   26.67    46516180          12    22167047
 46516180,12,9,22167001,11,15,11,0,0,0,0,0,0,0,0,0
     85.000   26.67    46529506          12    22173699
 46529506,12,8,22173663,11,6,11,0,0,0,0,0,0,0,0,0
     90.000   26.67    46477835           9    22151976
 46477835,9,11,22151940,9,13,3,0,0,0,0,0,0,0,0,0
     95.000   26.67    46507960           9    22173021
 46507960,9,9,22172984,4,10,14,0,0,0,0,0,0,0,0,0
