'dm003004.bt5' 'Feb 25 2007 00:30' 'I'        200.    1  'TIME'   10  'RAW'
  Filename         Date            Scan       Mon    Prf  Base   #pts  Type
dm003 em3, 90% aq, um (hh) 0.508mm 1/2" Cd apertur
   0    0    0    0   0   0   0   0.0000     0.00000 0.00000   0.00000    2
 Collimation      Mosaic    Wavelength   T-Start   Incr.   H-field #Det    
  1       0.00000    0.00000    0.00000
  2       5.00000    0.50000    9.50000
  3       0.00000    0.00000    0.00000
  4       0.00000    0.00000    0.00000
  5      20.00000    0.00000   20.00000
  6       0.00000    0.00000    0.00000
 Mot:    Start       Step      End
     A2       MIN      MONITOR      COUNTS      EXTRA  
      5.000    3.33     5817812         294     2904830
 5817812,294,171,2903317,167,565,610,0,0,0,0,0,0,0,0,0
      5.500    3.33     5810899         276     2906424
 5810899,276,121,2905196,146,448,513,0,0,0,0,0,0,0,0,0
      6.000    3.33     5811040         182     2901920
 5811040,182,100,2900979,126,350,365,0,0,0,0,0,0,0,0,0
      6.500    3.33     5805700         174     2903200
 5805700,174,70,2902407,104,278,341,0,0,0,0,0,0,0,0,0
      7.000    3.33     5821558         112     2910608
 5821558,112,64,2909994,84,227,239,0,0,0,0,0,0,0,0,0
      7.500    3.33     5811336         112     2907615
 5811336,112,38,2907137,62,175,203,0,0,0,0,0,0,0,0,0
      8.000    3.33     5809572          76     2903589
 5809572,76,43,2903145,52,160,189,0,0,0,0,0,0,0,0,0
      8.500    3.33     5803286          71     2903699
 5803286,71,35,2903338,49,134,143,0,0,0,0,0,0,0,0,0
      9.000    3.33     5813407          82     2906050
 5813407,82,26,2905733,28,117,146,0,0,0,0,0,0,0,0,0
      9.500    3.33     5802972          63     2899589
 5802972,63,24,2899327,31,90,117,0,0,0,0,0,0,0,0,0
