'dmemp010.bt5' 'Feb 27 2007 09:01' 'I'        200.    2  'TIME'   10  'RAW'
  Filename         Date            Scan       Mon    Prf  Base   #pts  Type
dmemp mt cell 5/8" Gd aperture                    
   0    0    0    0   0   0   0   0.0000     0.00000 0.00000   0.00000    2
 Collimation      Mosaic    Wavelength   T-Start   Incr.   H-field #Det    
  1       0.00000    0.00000    0.00000
  2       5.00000    0.50000    9.50000
  3       0.00000    0.00000    0.00000
  4       0.00000    0.00000    0.00000
  5      20.00000    0.00000   20.00000
  6       0.00000    0.00000    0.00000
 Mot:    Start       Step      End
     A2       MIN      MONITOR      COUNTS      EXTRA  
      5.000    6.67    11594682           3     9549324
 11594682,3,3,9549313,1,2,5,0,0,0,0,0,0,0,0,0
      5.500    6.67    11592876           3     9554273
 11592876,3,4,9554256,3,7,3,0,0,0,0,0,0,0,0,0
      6.000    6.67    11591510           4     9546201
 11591510,4,2,9546188,2,5,4,0,0,0,0,0,0,0,0,0
      6.500    6.67    11588530           2     9539847
 11588530,2,2,9539835,4,2,4,0,0,0,0,0,0,0,0,0
      7.000    6.67    11600849           3     9553179
 11600849,3,2,9553166,4,4,3,0,0,0,0,0,0,0,0,0
      7.500    6.67    11597302           2     9549522
 11597302,2,0,9549510,2,6,4,0,0,0,0,0,0,0,0,0
      8.000    6.67    11593689           5     9552862
 11593689,5,2,9552853,1,4,2,0,0,0,0,0,0,0,0,0
      8.500    6.67    11589674           3     9545870
 11589674,3,3,9545859,5,3,0,0,0,0,0,0,0,0,0,0
      9.000    6.67    11581368           6     9540463
 11581368,6,3,9540454,2,2,2,0,0,0,0,0,0,0,0,0
      9.500    6.67    11590117           2     9552481
 11590117,2,3,9552461,2,5,10,0,0,0,0,0,0,0,0,0
