'dmg29016.bt5' 'Mar  2 2007 21:45' 'I'        400.    1  'TIME'   10  'RAW'
  Filename         Date            Scan       Mon    Prf  Base   #pts  Type
dmg29 repeat new sample Glass beads CM2.9 1/2" Cd 
   0    0    0    0   0   0   0   0.0000     0.00000 0.00000   0.00000    2
 Collimation      Mosaic    Wavelength   T-Start   Incr.   H-field #Det    
  1       0.00000    0.00000    0.00000
  2      10.00000    1.00000   19.00000
  3       0.00000    0.00000    0.00000
  4       0.00000    0.00000    0.00000
  5      10.00000    0.00000   10.00000
  6       0.00000    0.00000    0.00000
 Mot:    Start       Step      End
     A2       MIN      MONITOR      COUNTS      EXTRA  
     10.000    6.67    11715363         463     5537676
 11715363,463,255,5535257,266,872,1026,0,0,0,0,0,0,0,0,0
     11.000    6.67    11716262         353     5537783
 11716262,353,198,5536103,196,586,700,0,0,0,0,0,0,0,0,0
     12.000    6.67    11722511         271     5538322
 11722511,271,142,5537006,147,484,543,0,0,0,0,0,0,0,0,0
     13.000    6.67    11717718         202     5536988
 11717718,202,107,5535967,129,366,419,0,0,0,0,0,0,0,0,0
     14.000    6.67    11710167         162     5538785
 11710167,162,80,5537953,107,312,333,0,0,0,0,0,0,0,0,0
     15.000    6.67    11708501         123     5534670
 11708501,123,65,5534008,79,240,278,0,0,0,0,0,0,0,0,0
     16.000    6.67    11716878         112     5538501
 11716878,112,61,5537922,62,229,227,0,0,0,0,0,0,0,0,0
     17.000    6.67    11714408         102     5538498
 11714408,102,52,5538048,46,165,187,0,0,0,0,0,0,0,0,0
     18.000    6.67    11708237          80     5536665
 11708237,80,45,5536282,43,150,145,0,0,0,0,0,0,0,0,0
     19.000    6.67    11715037          66     5532688
 11715037,66,45,5532388,25,96,134,0,0,0,0,0,0,0,0,0
