'dmg40007.bt5' 'Mar  2 2007 16:08' 'I'       1600.    1  'TIME'   10  'RAW'
  Filename         Date            Scan       Mon    Prf  Base   #pts  Type
dmg40 Glass beads CM4.0 1/2" Cd                   
   0    0    0    0   0   0   0   0.0000     0.00000 0.00000   0.00000    2
 Collimation      Mosaic    Wavelength   T-Start   Incr.   H-field #Det    
  1       0.00000    0.00000    0.00000
  2      50.00000    5.00000   95.00000
  3       0.00000    0.00000    0.00000
  4       0.00000    0.00000    0.00000
  5      20.00000    0.00000   20.00000
  6       0.00000    0.00000    0.00000
 Mot:    Start       Step      End
     A2       MIN      MONITOR      COUNTS      EXTRA  
     50.000   26.67    46999756          20    23224080
 46999756,20,22,23223993,6,32,27,0,0,0,0,0,0,0,0,0
     55.000   26.67    46987348          10    23227288
 46987348,10,14,23227214,15,24,21,0,0,0,0,0,0,0,0,0
     60.000   26.67    46987565          16    23218959
 46987565,16,15,23218906,3,15,20,0,0,0,0,0,0,0,0,0
     65.000   26.67    46971109          21    23214389
 46971109,21,11,23214330,9,13,26,0,0,0,0,0,0,0,0,0
     70.000   26.67    46969000           8    23218438
 46969000,8,21,23218376,7,19,15,0,0,0,0,0,0,0,0,0
     75.000   26.67    46967352           6    23210204
 46967352,6,7,23210156,11,12,18,0,0,0,0,0,0,0,0,0
     80.000   26.67    46957658          10    23199534
 46957658,10,3,23199495,11,10,15,0,0,0,0,0,0,0,0,0
     85.000   26.67    46940383          15    23189588
 46940383,15,10,23189544,4,15,15,0,0,0,0,0,0,0,0,0
     90.000   26.67    46930652          11    23188544
 46930652,11,6,23188501,10,14,13,0,0,0,0,0,0,0,0,0
     95.000   26.67    46899651           7    23180545
 46899651,7,11,23180498,6,21,9,0,0,0,0,0,0,0,0,0
