'dmm02007.bt5' 'Mar  1 2007 18:03' 'I'       1000.    1  'TIME'   10  'RAW'
  Filename         Date            Scan       Mon    Prf  Base   #pts  Type
dmm02 10um:1um 7:3 PMMA mix 1mm 5/8" Gd aperture  
   0    0    0    0   0   0   0   0.0000     0.00000 0.00000   0.00000    2
 Collimation      Mosaic    Wavelength   T-Start   Incr.   H-field #Det    
  1       0.00000    0.00000    0.00000
  2      50.00000    5.00000   95.00000
  3       0.00000    0.00000    0.00000
  4       0.00000    0.00000    0.00000
  5       0.00000    0.00000    0.00000
  6       0.00000    0.00000    0.00000
 Mot:    Start       Step      End
     A2       MIN      MONITOR      COUNTS      EXTRA  
     50.000   16.67    29059675          14    20254782
 29059675,14,10,20254704,14,23,31,0,0,0,0,0,0,0,0,0
     55.000   16.67    29063316           9    20246563
 29063316,9,6,20246510,9,19,19,0,0,0,0,0,0,0,0,0
     60.000   16.67    29078229           8    20259344
 29078229,8,10,20259301,8,14,11,0,0,0,0,0,0,0,0,0
     65.000   16.67    29054503           9    20238421
 29054503,9,8,20238371,15,13,14,0,0,0,0,0,0,0,0,0
     70.000   16.67    29059183           4    20252586
 29059183,4,6,20252540,8,18,14,0,0,0,0,0,0,0,0,0
     75.000   16.67    29076058          10    20261716
 29076058,10,4,20261684,6,8,14,0,0,0,0,0,0,0,0,0
     80.000   16.67    29047574           5    20232293
 29047574,5,6,20232263,5,11,8,0,0,0,0,0,0,0,0,0
     85.000   16.67    29042129           2    20244034
 29042129,2,6,20244009,8,7,4,0,0,0,0,0,0,0,0,0
     90.000   16.67    29035289           5    20232735
 29035289,5,8,20232703,6,11,7,0,0,0,0,0,0,0,0,0
     95.000   16.67    29052415           6    20237253
 29052415,6,7,20237231,9,6,0,0,0,0,0,0,0,0,0,0
