'dmm05005.bt5' 'Mar  8 2007 19:29' 'I'        400.    1  'TIME'   10  'RAW'
  Filename         Date            Scan       Mon    Prf  Base   #pts  Type
dmm05 10um:1um pmma 40:60 pos 10, 5/8" Cd Ap      
   0    0    0    0   0   0   0   0.0000     0.00000 0.00000   0.00000    2
 Collimation      Mosaic    Wavelength   T-Start   Incr.   H-field #Det    
  1       0.00000    0.00000    0.00000
  2      10.00000    1.00000   19.00000
  3       0.00000    0.00000    0.00000
  4       0.00000    0.00000    0.00000
  5      10.00000    0.00000   10.00000
  6       0.00000    0.00000    0.00000
 Mot:    Start       Step      End
     A2       MIN      MONITOR      COUNTS      EXTRA  
     10.000    6.67    11721564         202     6051297
 11721564,202,102,6050257,112,377,449,0,0,0,0,0,0,0,0,0
     11.000    6.67    11727624         167     6061484
 11727624,167,109,6060562,106,352,355,0,0,0,0,0,0,0,0,0
     12.000    6.67    11731807         165     6058940
 11731807,165,100,6058049,108,328,355,0,0,0,0,0,0,0,0,0
     13.000    6.67    11720788         174     6052416
 11720788,174,81,6051609,107,303,316,0,0,0,0,0,0,0,0,0
     14.000    6.67    11718029         140     6048047
 11718029,140,58,6047317,88,252,332,0,0,0,0,0,0,0,0,0
     15.000    6.67    11731414          97     6058403
 11731414,97,38,6057903,77,163,222,0,0,0,0,0,0,0,0,0
     16.000    6.67    11710306          62     6047449
 11710306,62,37,6047110,47,106,149,0,0,0,0,0,0,0,0,0
     17.000    6.67    11709804          33     6052225
 11709804,33,28,6051985,37,85,90,0,0,0,0,0,0,0,0,0
     18.000    6.67    11712776          37     6049775
 11712776,37,21,6049558,30,85,81,0,0,0,0,0,0,0,0,0
     19.000    6.67    11717981          31     6050452
 11717981,31,14,6050229,26,74,109,0,0,0,0,0,0,0,0,0
