'dmm04003.bt5' 'Mar  4 2007 20:46' 'I'        100.    1  'TIME'   15  'RAW'
  Filename         Date            Scan       Mon    Prf  Base   #pts  Type
dmm04 10um:1um 80:20 (b:S) PMMA 1mm 1/2" cd ap    
   0    0    0    0   0   0   0   0.0000     0.00000 0.00000   0.00000    2
 Collimation      Mosaic    Wavelength   T-Start   Incr.   H-field #Det    
  1       0.00000    0.00000    0.00000
  2       2.00000    0.20000    4.80000
  3       0.00000    0.00000    0.00000
  4       0.00000    0.00000    0.00000
  5      20.00000    0.00000   20.00000
  6       0.00000    0.00000    0.00000
 Mot:    Start       Step      End
     A2       MIN      MONITOR      COUNTS      EXTRA  
      2.000    1.67     2918142        3669     1456268
 2918142,3669,1655,1438236,2280,6427,7670,0,0,0,0,0,0,0,0,0
      2.200    1.67     2914498        2530     1457167
 2914498,2530,1281,1444242,1638,4679,5327,0,0,0,0,0,0,0,0,0
      2.400    1.67     2915127        2196     1459759
 2915127,2196,1045,1448512,1321,4287,4594,0,0,0,0,0,0,0,0,0
      2.600    1.67     2918774        2087     1462202
 2918774,2087,1133,1451811,1266,3905,4087,0,0,0,0,0,0,0,0,0
      2.800    1.67     2918823        1825     1464862
 2918823,1825,932,1455489,1085,3532,3824,0,0,0,0,0,0,0,0,0
      3.000    1.67     2910334        1494     1461793
 2910334,1494,757,1453987,1016,2795,3238,0,0,0,0,0,0,0,0,0
      3.200    1.67     2913950        1154     1462130
 2913950,1154,579,1456006,787,2201,2557,0,0,0,0,0,0,0,0,0
      3.400    1.67     2913267         894     1463006
 2913267,894,436,1458232,609,1685,2044,0,0,0,0,0,0,0,0,0
      3.600    1.67     2916117         759     1463780
 2916117,759,432,1459802,453,1442,1651,0,0,0,0,0,0,0,0,0
      3.800    1.67     2910386         731     1461527
 2910386,731,415,1457867,432,1417,1396,0,0,0,0,0,0,0,0,0
      4.000    1.67     2917800         687     1466438
 2917800,687,339,1462925,438,1303,1433,0,0,0,0,0,0,0,0,0
      4.200    1.67     2916586         586     1461371
 2916586,586,304,1458283,380,1144,1260,0,0,0,0,0,0,0,0,0
      4.400    1.67     2915596         542     1463073
 2915596,542,258,1460310,336,1019,1150,0,0,0,0,0,0,0,0,0
      4.600    1.67     2914887         460     1465682
 2914887,460,240,1463360,256,834,992,0,0,0,0,0,0,0,0,0
      4.800    1.67     2912444         362     1464835
 2912444,362,191,1462770,226,790,858,0,0,0,0,0,0,0,0,0
