'dmm06003.bt5' 'Mar  9 2007 09:57' 'I'        100.    1  'TIME'   15  'RAW'
  Filename         Date            Scan       Mon    Prf  Base   #pts  Type
dmm06 1um pmma repeat, pos 20, 1/2" Cd ap         
   0    0    0    0   0   0   0   0.0000     0.00000 0.00000   0.00000    2
 Collimation      Mosaic    Wavelength   T-Start   Incr.   H-field #Det    
  1       0.00000    0.00000    0.00000
  2       2.00000    0.20000    4.80000
  3       0.00000    0.00000    0.00000
  4       0.00000    0.00000    0.00000
  5      20.00000    0.00000   20.00000
  6       0.00000    0.00000    0.00000
 Mot:    Start       Step      End
     A2       MIN      MONITOR      COUNTS      EXTRA  
      2.000    1.67     2918762        1213     1478473
 2918762,1213,591,1472575,763,2211,2333,0,0,0,0,0,0,0,0,0
      2.200    1.67     2919562        1125     1477562
 2919562,1125,553,1471967,713,2138,2191,0,0,0,0,0,0,0,0,0
      2.400    1.67     2912371        1113     1476433
 2912371,1113,530,1471020,618,2085,2180,0,0,0,0,0,0,0,0,0
      2.600    1.67     2917027        1041     1479707
 2917027,1041,532,1474370,660,2038,2107,0,0,0,0,0,0,0,0,0
      2.800    1.67     2924074        1045     1481424
 2924074,1045,528,1476236,628,1957,2075,0,0,0,0,0,0,0,0,0
      3.000    1.67     2916663        1046     1478780
 2916663,1046,513,1473886,596,1819,1966,0,0,0,0,0,0,0,0,0
      3.200    1.67     2917697         963     1480864
 2917697,963,474,1476051,572,1835,1932,0,0,0,0,0,0,0,0,0
      3.400    1.67     2918038         923     1481092
 2918038,923,470,1476428,531,1778,1885,0,0,0,0,0,0,0,0,0
      3.600    1.67     2915197         900     1479753
 2915197,900,455,1475296,489,1720,1793,0,0,0,0,0,0,0,0,0
      3.800    1.67     2909644         864     1479127
 2909644,864,412,1474930,515,1568,1702,0,0,0,0,0,0,0,0,0
      4.000    1.67     2914537         800     1477233
 2914537,800,431,1473089,507,1566,1640,0,0,0,0,0,0,0,0,0
      4.200    1.67     2916921         790     1479888
 2916921,790,447,1475744,487,1545,1665,0,0,0,0,0,0,0,0,0
      4.400    1.67     2917722         833     1480266
 2917722,833,388,1476306,518,1504,1550,0,0,0,0,0,0,0,0,0
      4.600    1.67     2918266         737     1480405
 2918266,737,372,1476540,449,1470,1574,0,0,0,0,0,0,0,0,0
      4.800    1.67     2914814         754     1478551
 2914814,754,385,1474943,406,1369,1448,0,0,0,0,0,0,0,0,0
