'dmm03004.bt5' 'Mar  5 2007 07:37' 'I'        200.    1  'TIME'   10  'RAW'
  Filename         Date            Scan       Mon    Prf  Base   #pts  Type
dmm03 10um:1um 60:40 (b:S) PMMA 1mm 1/2"          
   0    0    0    0   0   0   0   0.0000     0.00000 0.00000   0.00000    2
 Collimation      Mosaic    Wavelength   T-Start   Incr.   H-field #Det    
  1       0.00000    0.00000    0.00000
  2       5.00000    0.50000    9.50000
  3       0.00000    0.00000    0.00000
  4       0.00000    0.00000    0.00000
  5      10.00000    0.00000   10.00000
  6       0.00000    0.00000    0.00000
 Mot:    Start       Step      End
     A2       MIN      MONITOR      COUNTS      EXTRA  
      5.000    3.33     5819329         925     2924384
 5819329,925,516,2919438,519,1865,2046,0,0,0,0,0,0,0,0,0
      5.500    3.33     5814097         867     2921123
 5814097,867,493,2916867,491,1545,1727,0,0,0,0,0,0,0,0,0
      6.000    3.33     5822013         715     2921530
 5822013,715,396,2917883,400,1400,1451,0,0,0,0,0,0,0,0,0
      6.500    3.33     5821773         610     2924075
 5821773,610,345,2920962,359,1166,1243,0,0,0,0,0,0,0,0,0
      7.000    3.33     5816468         501     2922105
 5816468,501,237,2919484,285,1037,1062,0,0,0,0,0,0,0,0,0
      7.500    3.33     5815507         372     2921563
 5815507,372,223,2919482,251,729,878,0,0,0,0,0,0,0,0,0
      8.000    3.33     5812734         358     2919337
 5812734,358,165,2917679,188,578,727,0,0,0,0,0,0,0,0,0
      8.500    3.33     5812603         212     2920986
 5812603,212,97,2919810,148,403,528,0,0,0,0,0,0,0,0,0
      9.000    3.33     5826005         122     2928133
 5826005,122,79,2927332,90,287,345,0,0,0,0,0,0,0,0,0
      9.500    3.33     5816151         121     2924366
 5816151,121,50,2923764,76,199,277,0,0,0,0,0,0,0,0,0
