'dmm55005.bt5' 'Mar  4 2007 11:15' 'I'        400.    1  'TIME'   10  'RAW'
  Filename         Date            Scan       Mon    Prf  Base   #pts  Type
dmm55 10um+1.5um PMMA 50/50 mix 1mm 5/8" Gd apertu
   0    0    0    0   0   0   0   0.0000     0.00000 0.00000   0.00000    2
 Collimation      Mosaic    Wavelength   T-Start   Incr.   H-field #Det    
  1       0.00000    0.00000    0.00000
  2      10.00000    1.00000   19.00000
  3       0.00000    0.00000    0.00000
  4       0.00000    0.00000    0.00000
  5      30.00000    0.00000   30.00000
  6       0.00000    0.00000    0.00000
 Mot:    Start       Step      End
     A2       MIN      MONITOR      COUNTS      EXTRA  
     10.000    6.67    11594267         215     5820061
 11594267,215,123,5819066,99,362,411,0,0,0,0,0,0,0,0,0
     11.000    6.67    11597142         170     5823277
 11597142,170,99,5822371,96,351,360,0,0,0,0,0,0,0,0,0
     12.000    6.67    11600596         182     5824830
 11600596,182,96,5823930,83,345,376,0,0,0,0,0,0,0,0,0
     13.000    6.67    11607759         154     5827938
 11607759,154,91,5827151,77,303,316,0,0,0,0,0,0,0,0,0
     14.000    6.67    11612297         129     5824837
 11612297,129,75,5824146,71,254,291,0,0,0,0,0,0,0,0,0
     15.000    6.67    11600990          98     5829646
 11600990,98,42,5829169,60,174,201,0,0,0,0,0,0,0,0,0
     16.000    6.67    11604935          44     5829208
 11604935,44,39,5828905,32,96,136,0,0,0,0,0,0,0,0,0
     17.000    6.67    11593236          46     5826487
 11593236,46,20,5826274,40,75,78,0,0,0,0,0,0,0,0,0
     18.000    6.67    11606042          45     5830008
 11606042,45,26,5829806,25,64,87,0,0,0,0,0,0,0,0,0
     19.000    6.67    11602202          40     5824666
 11602202,40,29,5824421,24,101,91,0,0,0,0,0,0,0,0,0
