'dms03002.bt5' 'Mar  5 2007 17:57' 'I'         50.    1  'TIME'   13  'RAW'
  Filename         Date            Scan       Mon    Prf  Base   #pts  Type
dms03 5um:1um 70:30 SiO2 CM2.9 1mm 1/2" Cd apertur
   0    0    0    0   0   0   0   0.0000     0.00000 0.00000   0.00000    2
 Collimation      Mosaic    Wavelength   T-Start   Incr.   H-field #Det    
  1       0.00000    0.00000    0.00000
  2       0.70000    0.10000    1.90000
  3       0.00000    0.00000    0.00000
  4       0.00000    0.00000    0.00000
  5       0.00000    0.00000    0.00000
  6       0.00000    0.00000    0.00000
 Mot:    Start       Step      End
     A2       MIN      MONITOR      COUNTS      EXTRA  
      0.700    0.83     1453659       18258      741792
 1453659,18258,8917,651826,11223,33727,36099,0,0,0,0,0,0,0,0,0
      0.800    0.83     1451723       13110      751147
 1451723,13110,6248,686192,8313,24213,26181,0,0,0,0,0,0,0,0,0
      0.900    0.83     1451252        9417      757398
 1451252,9417,4530,709564,6302,17727,19275,0,0,0,0,0,0,0,0,0
      1.000    0.83     1450718        7181      764480
 1450718,7181,3500,728418,4713,13079,14770,0,0,0,0,0,0,0,0,0
      1.100    0.83     1449110        5376      767422
 1449110,5376,2530,740352,3628,9917,10995,0,0,0,0,0,0,0,0,0
      1.200    0.83     1452454        4157      773822
 1452454,4157,1869,753117,2750,7368,8718,0,0,0,0,0,0,0,0,0
      1.300    0.83     1450692        3326      773452
 1450692,3326,1580,757082,2189,5868,6733,0,0,0,0,0,0,0,0,0
      1.400    0.83     1456376        2632      778054
 1456376,2632,1249,765049,1730,4714,5312,0,0,0,0,0,0,0,0,0
      1.500    0.83     1454866        2063      779685
 1454866,2063,1057,769047,1395,3912,4274,0,0,0,0,0,0,0,0,0
      1.600    0.83     1456363        1764      782571
 1456363,1764,903,773765,1148,3073,3682,0,0,0,0,0,0,0,0,0
      1.700    0.83     1450734        1421      779984
 1450734,1421,715,772643,962,2643,3021,0,0,0,0,0,0,0,0,0
      1.800    0.83     1450620        1240      782448
 1450620,1240,612,776107,816,2293,2620,0,0,0,0,0,0,0,0,0
      1.900    0.83     1448555        1061      780886
 1448555,1061,543,775283,728,2039,2293,0,0,0,0,0,0,0,0,0
