'dm007005.bt5' 'Mar  6 2007 05:37' 'I'        400.    1  'TIME'   10  'RAW'
  Filename         Date            Scan       Mon    Prf  Base   #pts  Type
dm007 95% emulsion CM (dd) 1mm 1/2" cd ap         
   0    0    0    0   0   0   0   0.0000     0.00000 0.00000   0.00000    2
 Collimation      Mosaic    Wavelength   T-Start   Incr.   H-field #Det    
  1       0.00000    0.00000    0.00000
  2      10.00000    1.00000   19.00000
  3       0.00000    0.00000    0.00000
  4       0.00000    0.00000    0.00000
  5      20.00000    0.00000   20.00000
  6       0.00000    0.00000    0.00000
 Mot:    Start       Step      End
     A2       MIN      MONITOR      COUNTS      EXTRA  
     10.000    6.67    11565545           2     5879713
 11565545,2,1,5879703,1,4,4,0,0,0,0,0,0,0,0,0
     11.000    6.67    11579577           1     5891325
 11579577,1,0,5891316,2,4,3,0,0,0,0,0,0,0,0,0
     12.000    6.67    11568341           2     5888949
 11568341,2,2,5888940,2,3,2,0,0,0,0,0,0,0,0,0
     13.000    6.67    11565192           1     5883065
 11565192,1,3,5883053,3,4,2,0,0,0,0,0,0,0,0,0
     14.000    6.67    11568113           5     5884205
 11568113,5,3,5884195,1,3,3,0,0,0,0,0,0,0,0,0
     15.000    6.67    11575307           1     5882946
 11575307,1,3,5882936,2,1,4,0,0,0,0,0,0,0,0,0
     16.000    6.67    11558106           4     5884953
 11558106,4,5,5884943,2,1,2,0,0,0,0,0,0,0,0,0
     17.000    6.67    11561582           1     5877614
 11561582,1,1,5877602,4,4,3,0,0,0,0,0,0,0,0,0
     18.000    6.67    11555428           1     5881704
 11555428,1,0,5881698,0,2,4,0,0,0,0,0,0,0,0,0
     19.000    6.67    11577482           5     5886485
 11577482,5,4,5886473,4,2,2,0,0,0,0,0,0,0,0,0
