'dmm05007.bt5' 'Mar  8 2007 22:55' 'I'       1200.    1  'TIME'   10  'RAW'
  Filename         Date            Scan       Mon    Prf  Base   #pts  Type
dmm05 10um:1um pmma 40:60 pos 10, 5/8" Cd Ap      
   0    0    0    0   0   0   0   0.0000     0.00000 0.00000   0.00000    2
 Collimation      Mosaic    Wavelength   T-Start   Incr.   H-field #Det    
  1       0.00000    0.00000    0.00000
  2      50.00000    5.00000   95.00000
  3       0.00000    0.00000    0.00000
  4       0.00000    0.00000    0.00000
  5      10.00000    0.00000   10.00000
  6       0.00000    0.00000    0.00000
 Mot:    Start       Step      End
     A2       MIN      MONITOR      COUNTS      EXTRA  
     50.000   20.00    35133235          12    18141416
 35133235,12,9,18141352,11,21,23,0,0,0,0,0,0,0,0,0
     55.000   20.00    35144692          14    18140241
 35144692,14,6,18140197,2,18,18,0,0,0,0,0,0,0,0,0
     60.000   20.00    35141041           8    18137616
 35141041,8,6,18137563,8,23,16,0,0,0,0,0,0,0,0,0
     65.000   20.00    35138974           8    18134363
 35138974,8,6,18134315,12,14,16,0,0,0,0,0,0,0,0,0
     70.000   20.00    35131346           9    18139419
 35131346,9,10,18139372,9,10,18,0,0,0,0,0,0,0,0,0
     75.000   20.00    35124822           8    18122354
 35124822,8,7,18122313,10,12,12,0,0,0,0,0,0,0,0,0
     80.000   20.00    35143004           8    18132277
 35143004,8,7,18132241,6,13,10,0,0,0,0,0,0,0,0,0
     85.000   20.00    35105983           8    18129781
 35105983,8,4,18129752,4,8,13,0,0,0,0,0,0,0,0,0
     90.000   20.00    35130446           8    18118299
 35130446,8,6,18118263,3,11,16,0,0,0,0,0,0,0,0,0
     95.000   20.00    35132853          11    18126970
 35132853,11,10,18126939,5,6,10,0,0,0,0,0,0,0,0,0
