'dms01007.bt5' 'Mar  3 2007 19:15' 'I'       1600.    1  'TIME'   10  'RAW'
  Filename         Date            Scan       Mon    Prf  Base   #pts  Type
dms01 1um SiO2 CM2.9 1mm 1/2" Cd aperture         
   0    0    0    0   0   0   0   0.0000     0.00000 0.00000   0.00000    2
 Collimation      Mosaic    Wavelength   T-Start   Incr.   H-field #Det    
  1       0.00000    0.00000    0.00000
  2      50.00000    5.00000   95.00000
  3       0.00000    0.00000    0.00000
  4       0.00000    0.00000    0.00000
  5       0.00000    0.00000    0.00000
  6       0.00000    0.00000    0.00000
 Mot:    Start       Step      End
     A2       MIN      MONITOR      COUNTS      EXTRA  
     50.000   26.67    46530351          26    25355046
 46530351,26,15,25354958,12,29,32,0,0,0,0,0,0,0,0,0
     55.000   26.67    46525100          17    25355652
 46525100,17,17,25355542,18,37,38,0,0,0,0,0,0,0,0,0
     60.000   26.67    46495373          17    25339110
 46495373,17,19,25339019,16,23,33,0,0,0,0,0,0,0,0,0
     65.000   26.67    46494633          15    25334798
 46494633,15,13,25334737,11,23,14,0,0,0,0,0,0,0,0,0
     70.000   26.67    46488716          14    25337139
 46488716,14,12,25337076,17,20,14,0,0,0,0,0,0,0,0,0
     75.000   26.67    46466090          18    25332573
 46466090,18,13,25332523,10,13,14,0,0,0,0,0,0,0,0,0
     80.000   26.67    46458498           6    25325779
 46458498,6,7,25325735,8,17,12,0,0,0,0,0,0,0,0,0
     85.000   26.67    46469513          14    25336256
 46469513,14,8,25336217,7,11,13,0,0,0,0,0,0,0,0,0
     90.000   26.67    46457564          14    25328477
 46457564,14,7,25328434,6,17,13,0,0,0,0,0,0,0,0,0
     95.000   26.67    46461749           6    25322189
 46461749,6,6,25322144,10,11,18,0,0,0,0,0,0,0,0,0
