'dm002011.bt5' 'Feb 24 2007 14:06' 'I'        200.    1  'TIME'   10  'RAW'
  Filename         Date            Scan       Mon    Prf  Base   #pts  Type
dm002 em2, 80% aq, um (hh) 0.508mm 1/2" Cd apertur
   0    0    0    0   0   0   0   0.0000     0.00000 0.00000   0.00000    2
 Collimation      Mosaic    Wavelength   T-Start   Incr.   H-field #Det    
  1       0.00000    0.00000    0.00000
  2       5.00000    0.50000    9.50000
  3       0.00000    0.00000    0.00000
  4       0.00000    0.00000    0.00000
  5      10.00000    0.00000   10.00000
  6       0.00000    0.00000    0.00000
 Mot:    Start       Step      End
     A2       MIN      MONITOR      COUNTS      EXTRA  
      5.000    3.33     5842104         224     2783920
 5842104,224,104,2782813,146,382,475,0,0,0,0,0,0,0,0,0
      5.500    3.33     5838444         164     2783867
 5838444,164,82,2783035,103,295,352,0,0,0,0,0,0,0,0,0
      6.000    3.33     5836298         123     2782706
 5836298,123,68,2782073,70,228,267,0,0,0,0,0,0,0,0,0
      6.500    3.33     5845540          92     2789111
 5845540,92,45,2788651,59,174,182,0,0,0,0,0,0,0,0,0
      7.000    3.33     5844790          84     2786946
 5844790,84,34,2786564,36,165,147,0,0,0,0,0,0,0,0,0
      7.500    3.33     5848753          59     2790036
 5848753,59,27,2789727,34,112,136,0,0,0,0,0,0,0,0,0
      8.000    3.33     5846662          51     2785016
 5846662,51,20,2784744,30,100,122,0,0,0,0,0,0,0,0,0
      8.500    3.33     5835783          37     2782379
 5835783,37,29,2782171,27,62,90,0,0,0,0,0,0,0,0,0
      9.000    3.33     5841314          26     2787800
 5841314,26,22,2787606,25,73,74,0,0,0,0,0,0,0,0,0
      9.500    3.33     5845868          28     2787769
 5845868,28,15,2787610,16,57,71,0,0,0,0,0,0,0,0,0
