'dmm10001.bt5' 'Feb 28 2007 15:23' 'I'         25.    1  'TIME'   33  'RAW'
  Filename         Date            Scan       Mon    Prf  Base   #pts  Type
dmm10 10um PMMA 1mm 5/8" Gd aperture              
   0    0    0    0   0   0   0   0.0000     0.00000 0.00000   0.00000    2
 Collimation      Mosaic    Wavelength   T-Start   Incr.   H-field #Det    
  1       0.00000    0.00000    0.00000
  2      -1.00000    0.05000    0.60000
  3       0.00000    0.00000    0.00000
  4       0.00000    0.00000    0.00000
  5      30.00000    0.00000   30.00000
  6       0.00000    0.00000    0.00000
 Mot:    Start       Step      End
     A2       MIN      MONITOR      COUNTS      EXTRA  
     -1.000    0.42      725546        3944      490753
 725546,3944,2186,471620,2311,7240,7396,0,0,0,0,0,0,0,0,0
     -0.950    0.42      723946        3866      488757
 723946,3866,2166,469806,2243,7125,7417,0,0,0,0,0,0,0,0,0
     -0.900    0.42      724598        3764      489502
 724598,3764,2232,470327,2276,7346,7321,0,0,0,0,0,0,0,0,0
     -0.850    0.42      724480        3919      490056
 724480,3919,2098,471098,2288,7369,7203,0,0,0,0,0,0,0,0,0
     -0.800    0.42      721851        3730      487690
 721851,3730,2129,469004,2323,7182,7052,0,0,0,0,0,0,0,0,0
     -0.750    0.42      724287        3787      485645
 724287,3787,2058,467058,2203,7106,7220,0,0,0,0,0,0,0,0,0
     -0.700    0.42      725646        3800      486522
 725646,3800,2116,468179,2243,6976,7008,0,0,0,0,0,0,0,0,0
     -0.650    0.42      724919        3765      485323
 724919,3765,2201,466731,2357,6962,7072,0,0,0,0,0,0,0,0,0
     -0.600    0.42      725238        3627      484431
 725238,3627,2097,466117,2169,7078,6970,0,0,0,0,0,0,0,0,0
     -0.550    0.42      723981        3794      482344
 723981,3794,2086,464094,2204,6882,7078,0,0,0,0,0,0,0,0,0
     -0.500    0.42      724490        3767      479490
 724490,3767,2216,460967,2258,6916,7133,0,0,0,0,0,0,0,0,0
     -0.450    0.42      724933        3746      478614
 724933,3746,2096,460327,2162,6960,7069,0,0,0,0,0,0,0,0,0
     -0.400    0.42      723476        3756      476028
 723476,3756,2078,457650,2202,7050,7048,0,0,0,0,0,0,0,0,0
     -0.350    0.42      725163        3811      471146
 725163,3811,2122,452189,2244,7206,7385,0,0,0,0,0,0,0,0,0
     -0.300    0.42      724572        4051      463805
 724572,4051,2239,443900,2379,7550,7737,0,0,0,0,0,0,0,0,0
     -0.250    0.42      724218        5150      455182
 724218,5150,2733,430264,2963,9252,9970,0,0,0,0,0,0,0,0,0
     -0.200    0.42      724634        7758      450433
 724634,7758,4218,412156,4587,14322,15150,0,0,0,0,0,0,0,0,0
     -0.150    0.42      723849       12845      450775
 723849,12845,7455,387051,7325,24294,24650,0,0,0,0,0,0,0,0,0
     -0.100    0.42      725363       19775      455661
 725363,19775,12073,358263,11204,37431,36690,0,0,0,0,0,0,0,0,0
     -0.050    0.42      723912       26876      460766
 723912,26876,16354,328618,14859,51954,48981,0,0,0,0,0,0,0,0,0
      0.000    0.42      727158       33753      465389
 727158,33753,20722,299433,18540,65230,61464,0,0,0,0,0,0,0,0,0
      0.050    0.42      722361       40957      468304
 722361,40957,25564,268078,22352,78696,73614,0,0,0,0,0,0,0,0,0
      0.100    0.42      726598       47889      475324
 726598,47889,30052,240003,26612,92312,86345,0,0,0,0,0,0,0,0,0
      0.150    0.42      725980       54764      483688
 725980,54764,34415,218888,29844,103507,97034,0,0,0,0,0,0,0,0,0
      0.200    0.42      724703       58052      487500
 724703,58052,35965,206829,32626,108654,103426,0,0,0,0,0,0,0,0,0
      0.250    0.42      726342       56749      486574
 726342,56749,34628,211474,32647,106337,101488,0,0,0,0,0,0,0,0,0
      0.300    0.42      725633       51031      481201
 725633,51031,30885,230134,30138,96395,93649,0,0,0,0,0,0,0,0,0
      0.350    0.42      723668       44762      475364
 723668,44762,26153,256752,26652,83653,82154,0,0,0,0,0,0,0,0,0
      0.400    0.42      726455       38017      472420
 726455,38017,22010,285905,22843,71152,70510,0,0,0,0,0,0,0,0,0
      0.450    0.42      725772       30441      466984
 725772,30441,16803,317535,18875,56356,57415,0,0,0,0,0,0,0,0,0
      0.500    0.42      724612       22790      462340
 724612,22790,11929,351585,14552,40794,43480,0,0,0,0,0,0,0,0,0
      0.550    0.42      725177       15475      458077
 725177,15475,7213,382790,10697,26533,30844,0,0,0,0,0,0,0,0,0
      0.600    0.42      725147        8935      457792
 725147,8935,3971,413747,6596,14895,18583,0,0,0,0,0,0,0,0,0
