'dm002019.bt5' 'Feb 26 2007 07:42' 'I'        400.    1  'TIME'   10  'RAW'
  Filename         Date            Scan       Mon    Prf  Base   #pts  Type
dm002 em2, 80% aq, um (hh) 0.508mm 1/2" Cd apertur
   0    0    0    0   0   0   0   0.0000     0.00000 0.00000   0.00000    2
 Collimation      Mosaic    Wavelength   T-Start   Incr.   H-field #Det    
  1       0.00000    0.00000    0.00000
  2      10.00000    1.00000   19.00000
  3       0.00000    0.00000    0.00000
  4       0.00000    0.00000    0.00000
  5      10.00000    0.00000   10.00000
  6       0.00000    0.00000    0.00000
 Mot:    Start       Step      End
     A2       MIN      MONITOR      COUNTS      EXTRA  
     10.000    6.67    11564726           3     6831607
 11564726,3,2,6831593,3,5,4,0,0,0,0,0,0,0,0,0
     11.000    6.67    11566840           3     6838055
 11566840,3,3,6838045,1,5,1,0,0,0,0,0,0,0,0,0
     12.000    6.67    11578076           2     6836372
 11578076,2,1,6836366,2,2,1,0,0,0,0,0,0,0,0,0
     13.000    6.67    11571953           0     6832073
 11571953,0,2,6832060,2,3,6,0,0,0,0,0,0,0,0,0
     14.000    6.67    11565232           0     6827493
 11565232,0,0,6827487,1,2,3,0,0,0,0,0,0,0,0,0
     15.000    6.67    11570420           4     6830002
 11570420,4,2,6829997,0,2,1,0,0,0,0,0,0,0,0,0
     16.000    6.67    11576932           2     6837408
 11576932,2,0,6837401,1,1,5,0,0,0,0,0,0,0,0,0
     17.000    6.67    11573469           0     6832485
 11573469,0,0,6832477,7,0,1,0,0,0,0,0,0,0,0,0
     18.000    6.67    11568234           1     6835867
 11568234,1,2,6835861,0,1,3,0,0,0,0,0,0,0,0,0
     19.000    6.67    11571819           3     6829928
 11571819,3,2,6829919,1,2,4,0,0,0,0,0,0,0,0,0
