'dm011004.bt5' 'Mar  6 2007 17:36' 'I'        200.    1  'TIME'   10  'RAW'
  Filename         Date            Scan       Mon    Prf  Base   #pts  Type
dm011 em11 settled bottom fraction um (hh), 0.508m
   0    0    0    0   0   0   0   0.0000     0.00000 0.00000   0.00000    2
 Collimation      Mosaic    Wavelength   T-Start   Incr.   H-field #Det    
  1       0.00000    0.00000    0.00000
  2       5.00000    0.50000    9.50000
  3       0.00000    0.00000    0.00000
  4       0.00000    0.00000    0.00000
  5      10.00000    0.00000   10.00000
  6       0.00000    0.00000    0.00000
 Mot:    Start       Step      End
     A2       MIN      MONITOR      COUNTS      EXTRA  
      5.000    3.33     5793588         211     2779319
 5793588,211,111,2778222,150,388,448,0,0,0,0,0,0,0,0,0
      5.500    3.33     5791615         136     2778080
 5791615,136,86,2777230,104,315,345,0,0,0,0,0,0,0,0,0
      6.000    3.33     5789689         122     2779508
 5789689,122,58,2778869,82,251,248,0,0,0,0,0,0,0,0,0
      6.500    3.33     5790991          87     2775302
 5790991,87,58,2774826,57,174,187,0,0,0,0,0,0,0,0,0
      7.000    3.33     5799509          69     2780133
 5799509,69,51,2779721,48,142,171,0,0,0,0,0,0,0,0,0
      7.500    3.33     5788039          49     2779777
 5788039,49,33,2779460,41,108,135,0,0,0,0,0,0,0,0,0
      8.000    3.33     5793778          49     2780436
 5793778,49,28,2780165,36,98,109,0,0,0,0,0,0,0,0,0
      8.500    3.33     5793823          33     2777755
 5793823,33,19,2777545,22,79,90,0,0,0,0,0,0,0,0,0
      9.000    3.33     5794658          36     2782327
 5794658,36,15,2782142,24,65,81,0,0,0,0,0,0,0,0,0
      9.500    3.33     5802739          35     2781099
 5802739,35,21,2780953,12,45,68,0,0,0,0,0,0,0,0,0
