'dmg40005.bt5' 'Mar  2 2007 09:38' 'I'        400.    2  'TIME'   10  'RAW'
  Filename         Date            Scan       Mon    Prf  Base   #pts  Type
dmg40 Glass beads CM4.0 1/2" Cd                   
   0    0    0    0   0   0   0   0.0000     0.00000 0.00000   0.00000    2
 Collimation      Mosaic    Wavelength   T-Start   Incr.   H-field #Det    
  1       0.00000    0.00000    0.00000
  2      10.00000    1.00000   19.00000
  3       0.00000    0.00000    0.00000
  4       0.00000    0.00000    0.00000
  5      20.00000    0.00000   20.00000
  6       0.00000    0.00000    0.00000
 Mot:    Start       Step      End
     A2       MIN      MONITOR      COUNTS      EXTRA  
     10.000   13.33    23180849         607    11478070
 23180849,607,306,11475079,388,1119,1178,0,0,0,0,0,0,0,0,0
     11.000   13.33    23187356         444    11475072
 23187356,444,220,11472794,274,808,976,0,0,0,0,0,0,0,0,0
     12.000   13.33    23179679         319    11470490
 23179679,319,178,11468793,184,629,706,0,0,0,0,0,0,0,0,0
     13.000   13.33    23187289         259    11473896
 23187289,259,156,11472553,149,511,527,0,0,0,0,0,0,0,0,0
     14.000   13.33    23178403         208    11474264
 23178403,208,95,11473182,121,409,457,0,0,0,0,0,0,0,0,0
     15.000   13.33    23188941         190    11475130
 23188941,190,89,11474241,86,342,372,0,0,0,0,0,0,0,0,0
     16.000   13.33    23175561         139    11465263
 23175561,139,90,11464531,76,262,304,0,0,0,0,0,0,0,0,0
     17.000   13.33    23169173         108    11462472
 23169173,108,50,11461922,48,214,238,0,0,0,0,0,0,0,0,0
     18.000   13.33    23180770         107    11465826
 23180770,107,59,11465295,61,187,224,0,0,0,0,0,0,0,0,0
     19.000   13.33    23206166          95    11480588
 23206166,95,40,11480127,63,162,196,0,0,0,0,0,0,0,0,0
