'dmm01007.bt5' 'Feb 28 2007 12:48' 'I'       1000.    1  'TIME'   10  'RAW'
  Filename         Date            Scan       Mon    Prf  Base   #pts  Type
dmm01 1um PMMA 1mm 5/8" Gd aperture               
   0    0    0    0   0   0   0   0.0000     0.00000 0.00000   0.00000    2
 Collimation      Mosaic    Wavelength   T-Start   Incr.   H-field #Det    
  1       0.00000    0.00000    0.00000
  2      50.00000    5.00000   95.00000
  3       0.00000    0.00000    0.00000
  4       0.00000    0.00000    0.00000
  5       0.00000    0.00000    0.00000
  6       0.00000    0.00000    0.00000
 Mot:    Start       Step      End
     A2       MIN      MONITOR      COUNTS      EXTRA  
     50.000   16.67    28987246          16    21284257
 28987246,16,11,21284181,15,26,24,0,0,0,0,0,0,0,0,0
     55.000   16.67    28975119           8    21279119
 28975119,8,11,21279053,16,22,17,0,0,0,0,0,0,0,0,0
     60.000   16.67    28985638          13    21279375
 28985638,13,9,21279316,9,20,21,0,0,0,0,0,0,0,0,0
     65.000   16.67    28986001           7    21284692
 28986001,7,5,21284634,10,20,23,0,0,0,0,0,0,0,0,0
     70.000   16.67    28986803          10    21278927
 28986803,10,4,21278884,13,14,12,0,0,0,0,0,0,0,0,0
     75.000   16.67    28991908           6    21282738
 28991908,6,8,21282698,7,13,12,0,0,0,0,0,0,0,0,0
     80.000   16.67    28987341           5    21273439
 28987341,5,7,21273408,7,5,12,0,0,0,0,0,0,0,0,0
     85.000   16.67    28986168          12    21274285
 28986168,12,3,21274242,6,17,17,0,0,0,0,0,0,0,0,0
     90.000   16.67    28991840           5    21272846
 28991840,5,8,21272810,8,10,10,0,0,0,0,0,0,0,0,0
     95.000   16.67    28980648           4    21279021
 28980648,4,6,21278986,5,14,10,0,0,0,0,0,0,0,0,0
