'dmm55003.bt5' 'Mar  4 2007 10:11' 'I'        100.    1  'TIME'   15  'RAW'
  Filename         Date            Scan       Mon    Prf  Base   #pts  Type
dmm55 10um+1.5um PMMA 50/50 mix 1mm 5/8" Gd apertu
   0    0    0    0   0   0   0   0.0000     0.00000 0.00000   0.00000    2
 Collimation      Mosaic    Wavelength   T-Start   Incr.   H-field #Det    
  1       0.00000    0.00000    0.00000
  2       2.00000    0.20000    4.80000
  3       0.00000    0.00000    0.00000
  4       0.00000    0.00000    0.00000
  5      30.00000    0.00000   30.00000
  6       0.00000    0.00000    0.00000
 Mot:    Start       Step      End
     A2       MIN      MONITOR      COUNTS      EXTRA  
      2.000    1.67     2896006        2610     1445209
 2896006,2610,1253,1432800,1456,4511,5189,0,0,0,0,0,0,0,0,0
      2.200    1.67     2896106        1905     1446233
 2896106,1905,1052,1436425,1134,3652,3970,0,0,0,0,0,0,0,0,0
      2.400    1.67     2894009        1752     1448048
 2894009,1752,966,1439422,957,3262,3441,0,0,0,0,0,0,0,0,0
      2.600    1.67     2896963        1580     1450433
 2896963,1580,932,1442118,913,3220,3250,0,0,0,0,0,0,0,0,0
      2.800    1.67     2896629        1527     1450842
 2896629,1527,803,1443285,817,2843,3094,0,0,0,0,0,0,0,0,0
      3.000    1.67     2896749        1293     1449805
 2896749,1293,667,1443327,744,2452,2615,0,0,0,0,0,0,0,0,0
      3.200    1.67     2892132        1126     1449104
 2892132,1126,587,1443401,635,2091,2390,0,0,0,0,0,0,0,0,0
      3.400    1.67     2898719         957     1451212
 2898719,957,486,1446495,557,1786,1888,0,0,0,0,0,0,0,0,0
      3.600    1.67     2890768         876     1447213
 2890768,876,479,1442896,505,1632,1701,0,0,0,0,0,0,0,0,0
      3.800    1.67     2889564         810     1447706
 2889564,810,446,1443645,445,1531,1639,0,0,0,0,0,0,0,0,0
      4.000    1.67     2894567         768     1452357
 2894567,768,397,1448636,402,1373,1549,0,0,0,0,0,0,0,0,0
      4.200    1.67     2896009         749     1450434
 2896009,749,389,1446807,410,1344,1484,0,0,0,0,0,0,0,0,0
      4.400    1.67     2891342         672     1448254
 2891342,672,339,1445011,378,1237,1289,0,0,0,0,0,0,0,0,0
      4.600    1.67     2893484         574     1450584
 2893484,574,337,1447584,323,1153,1187,0,0,0,0,0,0,0,0,0
      4.800    1.67     2892777         550     1451050
 2892777,550,308,1448208,295,1100,1139,0,0,0,0,0,0,0,0,0
